idx	pos (m)	Mesure ch1 (V)	Mesure ch2 (V)	pos Moteur (m)
0	-2.0000e-02	 7.5518e+00	 6.0101e+00	 3.0000e+02
1	-1.9600e-02	 7.6579e+00	 3.2219e+00	 2.9960e+02
2	-1.9200e-02	 7.5386e+00	 1.2089e+00	 2.9920e+02
3	-1.8800e-02	 7.6800e+00	 8.4745e+00	 2.9880e+02
4	-1.8400e-02	 7.4870e+00	 6.4157e+00	 2.9840e+02
5	-1.8000e-02	 7.7243e+00	 3.7537e+00	 2.9800e+02
6	-1.7600e-02	 7.4525e+00	 1.5862e+00	 2.9760e+02
7	-1.7200e-02	 7.7148e+00	 9.0770e+00	 2.9720e+02
8	-1.6800e-02	 7.4160e+00	 6.7513e+00	 2.9680e+02
9	-1.6400e-02	 7.7013e+00	 4.3832e+00	 2.9640e+02
10	-1.6000e-02	 7.3907e+00	 1.8663e+00	 2.9600e+02
11	-1.5600e-02	 7.6556e+00	 9.6954e+00	 2.9560e+02
12	-1.5200e-02	 7.3926e+00	 6.9571e+00	 2.9520e+02
13	-1.4800e-02	 7.6034e+00	 4.9345e+00	 2.9480e+02
14	-1.4400e-02	 7.4193e+00	 2.0878e+00	 2.9440e+02
15	-1.4000e-02	 7.5468e+00	 1.4548e-01	 2.9400e+02
16	-1.3600e-02	 7.4380e+00	 7.2947e+00	 2.9360e+02
17	-1.3200e-02	 7.5015e+00	 5.3270e+00	 2.9320e+02
18	-1.2800e-02	 7.4663e+00	 2.4764e+00	 2.9280e+02
19	-1.2400e-02	 7.4623e+00	 5.3040e-01	 2.9240e+02
20	-1.2000e-02	 7.4867e+00	 7.6619e+00	 2.9200e+02
21	-1.1600e-02	 7.4275e+00	 5.7415e+00	 2.9160e+02
22	-1.1200e-02	 7.5317e+00	 2.8743e+00	 2.9120e+02
23	-1.0800e-02	 7.3792e+00	 9.0874e-01	 2.9080e+02
24	-1.0400e-02	 7.5685e+00	 8.1349e+00	 2.9040e+02
25	-1.0000e-02	 7.3440e+00	 6.0686e+00	 2.9000e+02
26	-9.6000e-03	 7.5817e+00	 3.4201e+00	 2.8960e+02
27	-9.2000e-03	 7.3092e+00	 1.1881e+00	 2.8920e+02
28	-8.8000e-03	 7.5672e+00	 8.7312e+00	 2.8880e+02
29	-8.4000e-03	 7.2950e+00	 6.3483e+00	 2.8840e+02
30	-8.0000e-03	 7.5432e+00	 3.9878e+00	 2.8800e+02
31	-7.6000e-03	 7.2930e+00	 1.4534e+00	 2.8760e+02
32	-7.2000e-03	 7.5001e+00	 9.2427e+00	 2.8720e+02
33	-6.8000e-03	 7.2884e+00	 6.6336e+00	 2.8680e+02
34	-6.4000e-03	 7.4577e+00	 4.4487e+00	 2.8640e+02
35	-6.0000e-03	 7.2802e+00	 1.7677e+00	 2.8600e+02
36	-5.6000e-03	 7.4186e+00	 9.7177e+00	 2.8560e+02
37	-5.2000e-03	 7.3016e+00	 6.9035e+00	 2.8520e+02
38	-4.8000e-03	 7.3910e+00	 4.8865e+00	 2.8480e+02
39	-4.4000e-03	 7.3424e+00	 2.0596e+00	 2.8440e+02
40	-4.0000e-03	 7.3542e+00	 1.0505e-01	 2.8400e+02
41	-3.6000e-03	 7.3690e+00	 7.2976e+00	 2.8360e+02
42	-3.2000e-03	 7.3249e+00	 5.2787e+00	 2.8320e+02
43	-2.8000e-03	 7.4097e+00	 2.5079e+00	 2.8280e+02
44	-2.4000e-03	 7.2727e+00	 4.4428e-01	 2.8240e+02
45	-2.0000e-03	 7.4002e+00	 7.7664e+00	 2.8200e+02
46	-1.6000e-03	 7.2460e+00	 5.6222e+00	 2.8160e+02
47	-1.2000e-03	 7.4042e+00	 3.0099e+00	 2.8120e+02
48	-8.0000e-04	 7.2303e+00	 7.5852e-01	 2.8080e+02
49	-4.0000e-04	 7.3864e+00	 8.2858e+00	 2.8040e+02
50	 0.0000e+00	 7.2102e+00	 5.9019e+00	 2.8000e+02
51	 4.0000e-04	 7.3818e+00	 3.5256e+00	 2.7960e+02
52	 8.0000e-04	 7.1908e+00	 1.0550e+00	 2.7920e+02
53	 1.2000e-03	 7.3427e+00	 8.7605e+00	 2.7880e+02
54	 1.6000e-03	 7.1892e+00	 6.1839e+00	 2.7840e+02
55	 2.0000e-03	 7.3249e+00	 3.9529e+00	 2.7800e+02
56	 2.4000e-03	 7.2082e+00	 1.3571e+00	 2.7760e+02
57	 2.8000e-03	 7.2822e+00	 9.1715e+00	 2.7720e+02
58	 3.2000e-03	 7.2224e+00	 6.5176e+00	 2.7680e+02
59	 3.6000e-03	 7.2654e+00	 4.3596e+00	 2.7640e+02
60	 4.0000e-03	 7.2464e+00	 1.7230e+00	 2.7600e+02
61	 4.4000e-03	 7.2243e+00	 9.5747e+00	 2.7560e+02
62	 4.8000e-03	 7.2536e+00	 6.9453e+00	 2.7520e+02
63	 5.2000e-03	 7.2135e+00	 4.7044e+00	 2.7480e+02
64	 5.6000e-03	 7.2533e+00	 2.1753e+00	 2.7440e+02
65	 6.0000e-03	 7.1888e+00	 9.9156e+00	 2.7400e+02
66	 6.4000e-03	 7.2322e+00	 7.4065e+00	 2.7360e+02
67	 6.8000e-03	 7.1773e+00	 5.0788e+00	 2.7320e+02
68	 7.2000e-03	 7.2447e+00	 2.6279e+00	 2.7280e+02
69	 7.6000e-03	 7.1625e+00	 2.4771e-01	 2.7240e+02
70	 8.0000e-03	 7.2171e+00	 7.8430e+00	 2.7200e+02
71	 8.4000e-03	 7.1520e+00	 5.4295e+00	 2.7160e+02
72	 8.8000e-03	 7.2000e+00	 3.0309e+00	 2.7120e+02
73	 9.2000e-03	 7.1533e+00	 6.0436e-01	 2.7080e+02
74	 9.6000e-03	 7.1846e+00	 8.2263e+00	 2.7040e+02
75	 1.0000e-02	 7.1474e+00	 5.7967e+00	 2.7000e+02
76	 1.0400e-02	 7.1652e+00	 3.4178e+00	 2.6960e+02
77	 1.0800e-02	 7.1451e+00	 9.7087e-01	 2.6920e+02
78	 1.1200e-02	 7.1474e+00	 8.6099e+00	 2.6880e+02
79	 1.1600e-02	 7.1310e+00	 6.1609e+00	 2.6840e+02
80	 1.2000e-02	 7.1461e+00	 3.7465e+00	 2.6800e+02
81	 1.2400e-02	 7.1362e+00	 1.3541e+00	 2.6760e+02
82	 1.2800e-02	 7.1336e+00	 8.9639e+00	 2.6720e+02
83	 1.3200e-02	 7.1307e+00	 6.5547e+00	 2.6680e+02
84	 1.3600e-02	 7.1290e+00	 4.1568e+00	 2.6640e+02
85	 1.4000e-02	 7.1211e+00	 1.7470e+00	 2.6600e+02
86	 1.4400e-02	 7.1247e+00	 9.3413e+00	 2.6560e+02
87	 1.4800e-02	 7.1076e+00	 6.9788e+00	 2.6520e+02
88	 1.5200e-02	 7.1313e+00	 4.5226e+00	 2.6480e+02
89	 1.5600e-02	 7.1004e+00	 2.1444e+00	 2.6440e+02
90	 1.6000e-02	 7.1238e+00	 9.7493e+00	 2.6400e+02
91	 1.6400e-02	 7.0738e+00	 7.3512e+00	 2.6360e+02
92	 1.6800e-02	 7.1188e+00	 4.9049e+00	 2.6320e+02
93	 1.7200e-02	 7.0570e+00	 2.5219e+00	 2.6280e+02
94	 1.7600e-02	 7.1126e+00	 1.0373e-01	 2.6240e+02
95	 1.8000e-02	 7.0334e+00	 7.6846e+00	 2.6200e+02
96	 1.8400e-02	 7.1040e+00	 5.3322e+00	 2.6160e+02
97	 1.8800e-02	 7.0422e+00	 2.8159e+00	 2.6120e+02
98	 1.9200e-02	 7.0810e+00	 5.2218e-01	 2.6080e+02
99	 1.9600e-02	 7.0396e+00	 8.0047e+00	 2.6040e+02
100	 2.0000e-02	 7.0767e+00	 5.7162e+00	 2.6000e+02
